Time	Ch 0
[s]	[V]
0.000000	2.808284
0.000400	-2.438106
0.000800	1.134033
0.001200	0.600942
0.001600	-2.109240
0.002000	2.808284
0.002400	-2.439092
0.002800	1.134361
0.003200	0.600942
0.003600	-2.108911
0.004000	2.808613
0.004400	-2.438763
0.004800	1.134690
0.005200	0.600942
0.005600	-2.108253
0.006000	2.808284
0.006400	-2.438763
0.006800	1.135677
0.007200	0.599627
0.007600	-2.107595
0.008000	2.807955
0.008400	-2.439421
0.008800	1.135677
0.009200	0.599627
0.009600	-2.107267
0.010000	2.807955
0.010400	-2.440079
0.010800	1.136335
0.011200	0.598969
0.011600	-2.107267
0.012000	2.807626
0.012400	-2.440408
0.012800	1.136992
0.013200	0.598969
0.013600	-2.106938
0.014000	2.807955
0.014400	-2.440079
0.014800	1.136992
0.015200	0.597653
0.015600	-2.106938
0.016000	2.808284
0.016400	-2.440408
0.016800	1.137979
0.017200	0.597653
0.017600	-2.106609
0.018000	2.807955
0.018400	-2.440737
0.018800	1.138308
0.019200	0.597325
0.019600	-2.105951
0.020000	2.807955
0.020400	-2.441066
0.020800	1.138637
0.021200	0.596338
0.021600	-2.105622
0.022000	2.807955
0.022400	-2.441066
0.022800	1.138637
0.023200	0.596009
0.023600	-2.104965
0.024000	2.807626
0.024400	-2.441066
0.024800	1.139623
0.025200	0.595351
0.025600	-2.104965
0.026000	2.807626
0.026400	-2.441394
0.026800	1.140610
0.027200	0.594694
0.027600	-2.104636
0.028000	2.806968
0.028400	-2.442052
0.028800	1.140610
0.029200	0.594036
0.029600	-2.103978
0.030000	2.806968
0.030400	-2.442381
0.030800	1.140939
0.031200	0.593707
0.031600	-2.103978
0.032000	2.806640
0.032400	-2.442710
0.032800	1.141597
0.033200	0.593049
0.033600	-2.103649
0.034000	2.807297
0.034400	-2.443039
0.034800	1.142254
0.035200	0.592720
0.035600	-2.102662
0.036000	2.806968
0.036400	-2.443039
0.036800	1.142912
0.037200	0.592063
0.037600	-2.102991
0.038000	2.806640
0.038400	-2.443039
0.038800	1.143899
0.039200	0.591734
0.039600	-2.102662
0.040000	2.807297
0.040400	-2.443368
0.040800	1.143899
0.041200	0.590747
0.041600	-2.102662
0.042000	2.806968
0.042400	-2.443696
0.042800	1.144556
0.043200	0.590418
0.043600	-2.101676
0.044000	2.806968
0.044400	-2.444025
0.044800	1.144885
0.045200	0.590418
0.045600	-2.101347
0.046000	2.806968
0.046400	-2.444025
0.046800	1.145214
0.047200	0.590089
0.047600	-2.100689
0.048000	2.806640
0.048400	-2.444354
0.048800	1.146201
0.049200	0.588774
0.049600	-2.100689
0.050000	2.806968
0.050400	-2.445012
0.050800	1.146858
0.051200	0.588445
0.051600	-2.100032
0.052000	2.805982
0.052400	-2.444683
0.052800	1.146858
0.053200	0.587459
0.053600	-2.100032
0.054000	2.806311
0.054400	-2.445341
0.054800	1.147845
0.055200	0.587130
0.055600	-2.099703
0.056000	2.806311
0.056400	-2.445999
0.056800	1.147516
0.057200	0.586801
0.057600	-2.099374
0.058000	2.806311
0.058400	-2.445999
0.058800	1.148174
0.059200	0.586472
0.059600	-2.099045
0.060000	2.805982
0.060400	-2.446327
0.060800	1.148832
0.061200	0.585814
0.061600	-2.098387
0.062000	2.806640
0.062400	-2.446327
0.062800	1.149489
0.063200	0.585485
0.063600	-2.098058
0.064000	2.805982
0.064400	-2.446656
0.064800	1.149489
0.065200	0.584828
0.065600	-2.098387
0.066000	2.806640
0.066400	-2.446656
0.066800	1.150147
0.067200	0.584170
0.067600	-2.097729
0.068000	2.805653
0.068400	-2.446985
0.068800	1.150805
0.069200	0.583512
0.069600	-2.097729
0.070000	2.805653
0.070400	-2.447314
0.070800	1.151791
0.071200	0.583512
0.071600	-2.097072
0.072000	2.806640
0.072400	-2.447972
0.072800	1.151791
0.073200	0.583183
0.073600	-2.096414
0.074000	2.805982
0.074400	-2.447972
0.074800	1.152120
0.075200	0.582526
0.075600	-2.096414
0.076000	2.805982
0.076400	-2.448629
0.076800	1.152449
0.077200	0.581868
0.077600	-2.096085
0.078000	2.806311
0.078400	-2.448629
0.078800	1.153436
0.079200	0.581539
0.079600	-2.096085
0.080000	2.805982
0.080400	-2.448958
0.080800	1.154093
0.081200	0.580881
0.081600	-2.095099
0.082000	2.805653
0.082400	-2.448958
0.082800	1.154751
0.083200	0.580552
0.083600	-2.095427
0.084000	2.805653
0.084400	-2.449616
0.084800	1.155409
0.085200	0.579895
0.085600	-2.095099
0.086000	2.805982
0.086400	-2.449616
0.086800	1.155080
0.087200	0.579237
0.087600	-2.094441
0.088000	2.805653
0.088400	-2.449616
0.088800	1.155409
0.089200	0.578908
0.089600	-2.094441
0.090000	2.806311
0.090400	-2.449616
0.090800	1.156395
0.091200	0.578250
0.091600	-2.094112
0.092000	2.805982
0.092400	-2.450274
0.092800	1.156724
0.093200	0.577921
0.093600	-2.093454
0.094000	2.805653
0.094400	-2.450274
0.094800	1.157053
0.095200	0.577264
0.095600	-2.093125
0.096000	2.805324
0.096400	-2.451260
0.096800	1.157711
0.097200	0.576935
0.097600	-2.092139
0.098000	2.805653
0.098400	-2.450932
0.098800	1.158697
0.099200	0.575948
0.099600	-2.092468
0.100000	2.805653
0.100400	-2.450932
0.100800	1.158697
0.101200	0.575291
0.101600	-2.092139
0.102000	2.805324
0.102400	-2.452247
0.102800	1.159684
0.103200	0.574633
0.103600	-2.091152
0.104000	2.804995
0.104400	-2.452247
0.104800	1.160013
0.105200	0.573975
0.105600	-2.091152
0.106000	2.805324
0.106400	-2.452247
0.106800	1.160671
0.107200	0.573975
0.107600	-2.091152
0.108000	2.804995
0.108400	-2.452576
0.108800	1.160671
0.109200	0.573317
0.109600	-2.090823
0.110000	2.804995
0.110400	-2.452905
0.110800	1.161657
0.111200	0.573317
0.111600	-2.090166
0.112000	2.805653
0.112400	-2.453234
0.112800	1.161986
0.113200	0.572002
0.113600	-2.089837
0.114000	2.805324
0.114400	-2.453891
0.114800	1.162315
0.115200	0.571673
0.115600	-2.089179
0.116000	2.805324
0.116400	-2.453562
0.116800	1.162644
0.117200	0.571015
0.117600	-2.089508
0.118000	2.805324
0.118400	-2.454220
0.118800	1.162973
0.119200	0.571673
0.119600	-2.088521
0.120000	2.805324
0.120400	-2.454220
0.120800	1.163630
0.121200	0.570358
0.121600	-2.088521
0.122000	2.805324
0.122400	-2.454878
0.122800	1.164617
0.123200	0.569700
0.123600	-2.087535
0.124000	2.804995
0.124400	-2.454878
0.124800	1.164617
0.125200	0.569042
0.125600	-2.087206
0.126000	2.804666
0.126400	-2.454878
0.126800	1.165275
0.127200	0.568384
0.127600	-2.086877
0.128000	2.805324
0.128400	-2.455207
0.128800	1.165275
0.129200	0.567727
0.129600	-2.086548
0.130000	2.804666
0.130400	-2.455536
0.130800	1.166261
0.131200	0.567398
0.131600	-2.086219
0.132000	2.804337
0.132400	-2.456193
0.132800	1.166590
0.133200	0.567398
0.133600	-2.086219
0.134000	2.804666
0.134400	-2.455865
0.134800	1.167248
0.135200	0.566740
0.135600	-2.085233
0.136000	2.804995
0.136400	-2.456193
0.136800	1.168235
0.137200	0.566082
0.137600	-2.085233
0.138000	2.804666
0.138400	-2.456851
0.138800	1.168235
0.139200	0.566082
0.139600	-2.084575
0.140000	2.804666
0.140400	-2.457180
0.140800	1.169221
0.141200	0.565096
0.141600	-2.084246
0.142000	2.804995
0.142400	-2.457180
0.142800	1.169221
0.143200	0.564109
0.143600	-2.084246
0.144000	2.804995
0.144400	-2.456851
0.144800	1.169550
0.145200	0.564109
0.145600	-2.084246
0.146000	2.804009
0.146400	-2.457509
0.146800	1.169879
0.147200	0.563780
0.147600	-2.082930
0.148000	2.804009
0.148400	-2.458167
0.148800	1.170866
0.149200	0.562794
0.149600	-2.083259
0.150000	2.804337
0.150400	-2.458167
0.150800	1.170866
0.151200	0.562465
0.151600	-2.082602
0.152000	2.804009
0.152400	-2.458167
0.152800	1.171194
0.153200	0.561807
0.153600	-2.082273
0.154000	2.804337
0.154400	-2.458824
0.154800	1.172510
0.155200	0.562136
0.155600	-2.081286
0.156000	2.804009
0.156400	-2.458167
0.156800	1.172839
0.157200	0.561149
0.157600	-2.081286
0.158000	2.803680
0.158400	-2.459482
0.158800	1.173168
0.159200	0.560492
0.159600	-2.080957
0.160000	2.803680
0.160400	-2.459811
0.160800	1.173825
0.161200	0.559834
0.161600	-2.080957
0.162000	2.804009
0.162400	-2.460140
0.162800	1.174154
0.163200	0.559834
0.163600	-2.080300
0.164000	2.803680
0.164400	-2.459811
0.164800	1.174483
0.165200	0.559176
0.165600	-2.079971
0.166000	2.803680
0.166400	-2.459811
0.166800	1.175470
0.167200	0.558518
0.167600	-2.079971
0.168000	2.803680
0.168400	-2.460469
0.168800	1.175470
0.169200	0.558190
0.169600	-2.078984
0.170000	2.803680
0.170400	-2.460798
0.170800	1.175470
0.171200	0.557203
0.171600	-2.079642
0.172000	2.803022
0.172400	-2.460469
0.172800	1.177114
0.173200	0.556874
0.173600	-2.078326
0.174000	2.803351
0.174400	-2.461455
0.174800	1.176785
0.175200	0.556545
0.175600	-2.078326
0.176000	2.803680
0.176400	-2.461455
0.176800	1.177114
0.177200	0.555888
0.177600	-2.077998
0.178000	2.803351
0.178400	-2.461455
0.178800	1.178101
0.179200	0.555559
0.179600	-2.077011
0.180000	2.803351
0.180400	-2.462113
0.180800	1.178101
0.181200	0.554901
0.181600	-2.077669
0.182000	2.803351
0.182400	-2.461784
0.182800	1.178758
0.183200	0.554243
0.183600	-2.077011
0.184000	2.803022
0.184400	-2.462442
0.184800	1.179416
0.185200	0.553257
0.185600	-2.076353
0.186000	2.803022
0.186400	-2.462771
0.186800	1.179745
0.187200	0.552928
0.187600	-2.075367
0.188000	2.802364
0.188400	-2.462771
0.188800	1.180403
0.189200	0.552928
0.189600	-2.076353
0.190000	2.803022
0.190400	-2.463428
0.190800	1.181389
0.191200	0.551941
0.191600	-2.075367
0.192000	2.802693
0.192400	-2.463428
0.192800	1.181718
0.193200	0.551612
0.193600	-2.074709
0.194000	2.802693
0.194400	-2.463757
0.194800	1.182047
0.195200	0.550955
0.195600	-2.074380
0.196000	2.803022
0.196400	-2.464086
0.196800	1.182705
0.197200	0.550297
0.197600	-2.074709
0.198000	2.802693
0.198400	-2.464415
0.198800	1.183034
0.199200	0.549968
0.199600	-2.073722
0.200000	2.802693
0.200400	-2.464744
0.200800	1.183362
0.201200	0.549310
0.201600	-2.074051
0.202000	2.802364
0.202400	-2.465073
0.202800	1.183362
0.203200	0.548981
0.203600	-2.073065
0.204000	2.802035
0.204400	-2.465402
